Opt. Const. of Gen-Osc vs. nm
Wavelength (nm)	n	k
247.357712	1.946522	0.461608
248.939362	1.949394	0.456566
250.521072	1.952041	0.452139
252.102859	1.954571	0.448273
253.684723	1.957071	0.444905
255.266678	1.959608	0.441976
256.848694	1.962236	0.439424
258.430786	1.964995	0.437192
260.012939	1.967913	0.435226
261.595184	1.971013	0.433476
263.177490	1.974309	0.431895
264.759857	1.977811	0.430441
266.342346	1.981524	0.429074
267.924866	1.985452	0.427758
269.507477	1.989593	0.426460
271.090149	1.993944	0.425149
272.672882	1.998501	0.423797
274.255676	2.003257	0.422377
275.838562	2.008206	0.420865
277.421509	2.013339	0.419238
279.004547	2.018646	0.417475
280.587616	2.024117	0.415556
282.170776	2.029740	0.413462
283.753998	2.035503	0.411176
285.337280	2.041394	0.408681
286.920654	2.047398	0.405962
288.504089	2.053501	0.403003
290.087555	2.059687	0.399793
291.671112	2.065942	0.396317
293.254730	2.072247	0.392564
294.838409	2.078584	0.388524
296.422180	2.084937	0.384187
298.005981	2.091284	0.379544
299.589844	2.097607	0.374588
301.173767	2.103883	0.369313
302.757782	2.110093	0.363714
304.341858	2.116212	0.357787
305.925964	2.122219	0.351530
307.510162	2.128090	0.344943
309.094391	2.133801	0.338027
310.678680	2.139327	0.330784
312.263062	2.144644	0.323220
313.847473	2.149727	0.315341
315.431946	2.154550	0.307156
317.016510	2.159090	0.298675
318.601105	2.163321	0.289911
320.185730	2.167220	0.280879
321.770447	2.170763	0.271597
323.355225	2.173928	0.262084
324.940063	2.176694	0.252361
326.524963	2.179041	0.242452
328.109863	2.180950	0.232383
329.694885	2.182406	0.222181
331.279907	2.183393	0.211875
332.865021	2.183900	0.201498
334.450165	2.183917	0.191080
336.035370	2.183436	0.180657
337.620636	2.182454	0.170263
339.205933	2.180969	0.159933
340.791321	2.178982	0.149703
342.376709	2.176499	0.139610
343.962189	2.173526	0.129689
345.547699	2.170076	0.119977
347.133240	2.166161	0.110509
348.718872	2.161799	0.101318
350.304535	2.157010	0.092437
351.890259	2.151817	0.083899
353.476013	2.146245	0.075732
355.061829	2.140323	0.067965
356.647675	2.134082	0.060623
358.233582	2.127554	0.053730
359.819550	2.120775	0.047307
361.405548	2.113782	0.041373
362.991577	2.106614	0.035943
364.577698	2.099313	0.031031
366.163818	2.091922	0.026648
367.749969	2.084485	0.022802
369.336212	2.077051	0.019499
370.922485	2.069670	0.016742
372.508789	2.062400	0.014531
374.095154	2.055301	0.012866
375.681519	2.048449	0.011742
377.267975	2.041949	0.011152
378.854431	2.036027	0.011028
380.440979	2.030701	0.010977
382.027527	2.025753	0.010925
383.614105	2.021103	0.010875
385.200745	2.016701	0.010827
386.787445	2.012511	0.010780
388.374146	2.008510	0.010734
389.960907	2.004675	0.010690
391.547699	2.000992	0.010648
393.134552	1.997445	0.010607
394.721405	1.994022	0.010568
396.308289	1.990716	0.010531
397.895264	1.987515	0.010495
399.482239	1.984414	0.010461
401.069244	1.981404	0.010429
402.656311	1.978480	0.010398
404.243378	1.975636	0.010368
405.830505	1.972869	0.010341
407.417664	1.970172	0.010315
409.004822	1.967543	0.010290
410.592041	1.964978	0.010267
412.179291	1.962472	0.010245
413.766541	1.960024	0.010225
415.353912	1.957630	0.010206
416.941223	1.955287	0.010188
418.528625	1.952994	0.010172
420.116028	1.950747	0.010158
421.703461	1.948545	0.010144
423.290924	1.946386	0.010132
424.878418	1.944268	0.010121
426.465912	1.942189	0.010112
428.053467	1.940148	0.010104
429.641052	1.938142	0.010097
431.228668	1.936171	0.010091
432.816315	1.934234	0.010087
434.403961	1.932328	0.010083
435.991638	1.930453	0.010081
437.579346	1.928608	0.010080
439.167084	1.926791	0.010080
440.754822	1.925002	0.010082
442.342621	1.923239	0.010084
443.930420	1.921502	0.010088
445.518250	1.919789	0.010092
447.106110	1.918100	0.010098
448.694000	1.916434	0.010105
450.281891	1.914791	0.010112
451.869812	1.913169	0.010121
453.457764	1.911568	0.010131
455.045715	1.909987	0.010142
456.633698	1.908425	0.010154
458.221680	1.906883	0.010166
459.809723	1.905358	0.010180
461.397766	1.903852	0.010195
462.985840	1.902363	0.010210
464.573883	1.900890	0.010227
466.162018	1.899434	0.010244
467.750092	1.897993	0.010263
469.338226	1.896568	0.010282
470.926361	1.895157	0.010302
472.514557	1.893761	0.010323
474.102722	1.892379	0.010345
475.690918	1.891011	0.010368
477.279144	1.889655	0.010392
478.867340	1.888313	0.010417
480.455566	1.886983	0.010442
482.043854	1.885665	0.010468
483.632141	1.884359	0.010496
485.220367	1.883065	0.010523
486.808685	1.881781	0.010552
488.396973	1.880509	0.010582
489.985291	1.879247	0.010612
491.573578	1.877996	0.010643
493.161957	1.876754	0.010675
494.750305	1.875523	0.010708
496.338623	1.874301	0.010742
497.927002	1.873088	0.010776
499.515381	1.871884	0.010811
501.103760	1.870689	0.010847
502.692139	1.869503	0.010884
504.280518	1.868325	0.010922
505.868958	1.867155	0.010960
507.457336	1.865993	0.010999
509.045746	1.864839	0.011038
510.634186	1.863693	0.011079
512.222595	1.862554	0.011120
513.811035	1.861422	0.011162
515.399475	1.860297	0.011205
516.987915	1.859179	0.011248
518.576355	1.858068	0.011292
520.164795	1.856963	0.011337
521.753296	1.855865	0.011383
523.341675	1.854772	0.011429
524.930176	1.853686	0.011476
526.518677	1.852606	0.011524
528.107056	1.851531	0.011573
529.695557	1.850463	0.011622
531.283997	1.849399	0.011672
532.872437	1.848341	0.011722
534.460938	1.847288	0.011773
536.049377	1.846241	0.011825
537.637817	1.845198	0.011878
539.226257	1.844160	0.011932
540.814758	1.843127	0.011986
542.403198	1.842098	0.012040
543.991638	1.841074	0.012096
545.580078	1.840055	0.012152
547.168518	1.839040	0.012209
548.756958	1.838029	0.012266
550.345337	1.837022	0.012325
551.933777	1.836019	0.012384
553.522217	1.835020	0.012443
555.110657	1.834025	0.012503
556.699036	1.833033	0.012564
558.287476	1.832045	0.012626
559.875854	1.831061	0.012688
561.464233	1.830080	0.012751
563.052612	1.829102	0.012815
564.640991	1.828128	0.012879
566.229309	1.827157	0.012944
567.817688	1.826189	0.013010
569.406006	1.825224	0.013076
570.994324	1.824263	0.013143
572.582642	1.823304	0.013211
574.170959	1.822348	0.013279
575.759216	1.821394	0.013348
577.347534	1.820443	0.013418
578.935791	1.819495	0.013488
580.524048	1.818550	0.013559
582.112305	1.817607	0.013631
583.700562	1.816666	0.013704
585.288757	1.815728	0.013777
586.876953	1.814792	0.013850
588.465149	1.813858	0.013925
590.053345	1.812927	0.014000
591.641479	1.811998	0.014075
593.229614	1.811070	0.014152
594.817749	1.810145	0.014229
596.405823	1.809222	0.014307
597.993958	1.808300	0.014385
599.581970	1.807380	0.014464
601.170044	1.806463	0.014544
602.758057	1.805547	0.014624
604.346069	1.804632	0.014705
605.934082	1.803720	0.014787
607.522095	1.802808	0.014869
609.109985	1.801899	0.014953
610.697937	1.800991	0.015036
612.285828	1.800084	0.015121
613.873718	1.799179	0.015206
615.461609	1.798275	0.015292
617.049438	1.797373	0.015378
618.637268	1.796472	0.015465
620.225037	1.795572	0.015553
621.812866	1.794673	0.015641
623.400574	1.793775	0.015731
624.988342	1.792879	0.015820
626.576050	1.791984	0.015911
628.163696	1.791089	0.016002
629.751343	1.790196	0.016094
631.338989	1.789304	0.016187
632.926575	1.788412	0.016280
634.514099	1.787522	0.016374
636.101685	1.786633	0.016468
637.689148	1.785744	0.016564
639.276672	1.784856	0.016660
640.864136	1.783969	0.016756
642.451538	1.783082	0.016854
644.038940	1.782197	0.016952
645.626343	1.781312	0.017050
647.213623	1.780427	0.017150
648.800903	1.779543	0.017250
650.388184	1.778660	0.017351
651.975464	1.777778	0.017452
653.562622	1.776895	0.017554
655.149780	1.776014	0.017657
656.736938	1.775133	0.017761
658.324097	1.774252	0.017865
659.911133	1.773372	0.017970
661.498169	1.772492	0.018076
663.085205	1.771612	0.018182
664.672180	1.770733	0.018289
666.259094	1.769854	0.018397
667.846008	1.768975	0.018505
669.432861	1.768097	0.018615
671.019653	1.767219	0.018724
672.606445	1.766341	0.018835
674.193237	1.765463	0.018946
675.779907	1.764585	0.019058
677.366577	1.763708	0.019171
678.953247	1.762831	0.019285
680.539856	1.761953	0.019399
682.126343	1.761076	0.019514
683.712891	1.760199	0.019629
685.299377	1.759322	0.019746
686.885803	1.758445	0.019863
688.472168	1.757568	0.019981
690.058533	1.756690	0.020099
691.644836	1.755813	0.020218
693.231079	1.754936	0.020338
694.817322	1.754058	0.020459
696.403442	1.753181	0.020581
697.989624	1.752303	0.020703
699.575684	1.751425	0.020826
701.161743	1.750547	0.020949
702.747742	1.749669	0.021074
704.333679	1.748791	0.021199
705.919556	1.747912	0.021325
707.505493	1.747033	0.021452
709.091248	1.746154	0.021579
710.677002	1.745275	0.021707
712.262756	1.744395	0.021836
713.848389	1.743515	0.021966
715.434021	1.742634	0.022096
717.019592	1.741754	0.022227
718.605103	1.740872	0.022359
720.190552	1.739991	0.022492
721.776001	1.739109	0.022625
723.361389	1.738227	0.022760
724.946655	1.737344	0.022895
726.531921	1.736461	0.023030
728.117126	1.735577	0.023167
729.702271	1.734693	0.023304
731.287415	1.733808	0.023442
732.872437	1.732923	0.023581
734.457458	1.732038	0.023721
736.042419	1.731151	0.023861
737.627319	1.730265	0.024003
739.212158	1.729377	0.024145
740.796936	1.728489	0.024287
742.381653	1.727601	0.024431
743.966309	1.726712	0.024575
745.550903	1.725822	0.024720
747.135498	1.724932	0.024866
748.719971	1.724041	0.025013
750.304443	1.723149	0.025161
751.888794	1.722257	0.025309
753.473145	1.721364	0.025458
755.057373	1.720471	0.025608
756.641602	1.719576	0.025759
758.225708	1.718681	0.025911
759.809814	1.717785	0.026063
761.393860	1.716889	0.026216
762.977783	1.715991	0.026370
764.561646	1.715093	0.026525
766.145508	1.714195	0.026681
767.729309	1.713295	0.026838
769.313049	1.712395	0.026995
770.896667	1.711493	0.027153
772.480225	1.710591	0.027312
774.063782	1.709689	0.027472
775.647217	1.708785	0.027633
777.230591	1.707880	0.027794
778.813904	1.706975	0.027957
780.397156	1.706069	0.028120
781.980347	1.705161	0.028284
783.563538	1.704253	0.028449
785.146606	1.703344	0.028615
786.729553	1.702434	0.028781
788.312500	1.701524	0.028949
789.895325	1.700612	0.029117
791.478149	1.699699	0.029286
793.060852	1.698786	0.029457
794.643433	1.697871	0.029628
796.226074	1.696955	0.029799
797.808533	1.696039	0.029972
799.390991	1.695121	0.030146
800.973328	1.694203	0.030320
802.555664	1.693283	0.030496
804.137817	1.692363	0.030672
805.720032	1.691441	0.030849
807.302124	1.690518	0.031027
808.884094	1.689595	0.031206
810.466003	1.688670	0.031386
812.047852	1.687744	0.031566
813.629639	1.686817	0.031748
815.211304	1.685889	0.031930
816.792969	1.684960	0.032114
818.374512	1.684030	0.032298
819.955933	1.683099	0.032483
821.537415	1.682167	0.032670
823.118774	1.681233	0.032857
824.700012	1.680299	0.033045
826.281128	1.679363	0.033234
827.862183	1.678426	0.033424
829.443237	1.677488	0.033614
831.024109	1.676549	0.033806
832.604980	1.675609	0.033999
834.185730	1.674667	0.034192
835.766418	1.673725	0.034387
837.347046	1.672781	0.034582
838.927612	1.671836	0.034779
840.507996	1.670889	0.034976
842.088379	1.669942	0.035174
843.668640	1.668993	0.035374
845.248840	1.668043	0.035574
846.828979	1.667092	0.035775
848.408997	1.666140	0.035977
849.988953	1.665186	0.036180
851.568848	1.664231	0.036385
853.148621	1.663275	0.036590
854.728333	1.662318	0.036796
856.307922	1.661359	0.037003
857.887390	1.660399	0.037211
859.466797	1.659438	0.037420
861.046204	1.658475	0.037630
862.625488	1.657512	0.037841
864.204590	1.656546	0.038053
865.783691	1.655580	0.038266
867.362671	1.654612	0.038480
868.941589	1.653643	0.038695
870.520386	1.652673	0.038911
872.099121	1.651701	0.039128
873.677734	1.650728	0.039346
875.256226	1.649753	0.039565
876.834778	1.648777	0.039785
878.413086	1.647800	0.040006
879.991394	1.646822	0.040229
881.569519	1.645842	0.040452
883.147644	1.644861	0.040676
884.725586	1.643878	0.040901
886.303528	1.642894	0.041128
887.881348	1.641908	0.041355
889.458984	1.640921	0.041583
891.036621	1.639933	0.041813
892.614136	1.638943	0.042043
894.191589	1.637952	0.042275
895.768860	1.636960	0.042508
897.346069	1.635966	0.042741
898.923218	1.634970	0.042976
900.500305	1.633973	0.043212
902.077271	1.632975	0.043449
903.653992	1.631975	0.043687
905.230774	1.630974	0.043926
906.807434	1.629971	0.044167
908.383972	1.628967	0.044408
909.960327	1.627962	0.044650
911.536743	1.626954	0.044894
913.112976	1.625946	0.045138
914.689087	1.624936	0.045384
916.265137	1.623924	0.045631
917.841003	1.622911	0.045879
919.416870	1.621896	0.046128
920.992554	1.620880	0.046378
922.568237	1.619862	0.046630
924.143738	1.618843	0.046882
925.719116	1.617823	0.047136
927.294556	1.616800	0.047391
928.869751	1.615777	0.047646
930.444824	1.614751	0.047904
932.019836	1.613724	0.048162
933.594604	1.612696	0.048421
935.169434	1.611666	0.048682
936.744141	1.610634	0.048943
938.318726	1.609601	0.049206
939.893188	1.608567	0.049470
941.467468	1.607530	0.049735
943.041809	1.606492	0.050002
944.615906	1.605453	0.050269
946.189941	1.604412	0.050538
947.763855	1.603369	0.050808
949.337585	1.602325	0.051079
950.911316	1.601279	0.051352
952.484985	1.600232	0.051625
954.058411	1.599183	0.051900
955.631714	1.598132	0.052176
957.204956	1.597080	0.052453
958.778137	1.596026	0.052731
960.351196	1.594970	0.053011
961.924011	1.593913	0.053292
963.496887	1.592854	0.053574
965.069519	1.591794	0.053857
966.642090	1.590731	0.054142
968.214539	1.589668	0.054428
969.786926	1.588602	0.054715
971.359070	1.587535	0.055003
972.931274	1.586466	0.055293
974.503235	1.585396	0.055584
976.075073	1.584323	0.055876
977.646790	1.583250	0.056169
979.218445	1.582174	0.056464
980.789917	1.581097	0.056760
982.361328	1.580018	0.057057
983.932617	1.578937	0.057356
985.503784	1.577855	0.057656
987.074829	1.576771	0.057957
988.645691	1.575685	0.058260
990.216492	1.574598	0.058563
991.787231	1.573509	0.058869
993.357727	1.572418	0.059175
994.928223	1.571325	0.059483
996.498413	1.570231	0.059792
998.068665	1.569134	0.060102
999.638794	1.568037	0.060414
1012.848328	1.558727	0.06309
1016.217773	1.556331	0.06379
1019.587708	1.553926	0.06449
1022.958313	1.551512	0.06520
1026.329468	1.549089	0.06592
1029.701294	1.546657	0.06665
1033.073608	1.544215	0.06738
1036.446533	1.541764	0.06812
1039.820190	1.539303	0.06887
1043.194336	1.536834	0.06963
1046.569092	1.534354	0.07039
1049.944458	1.531865	0.07116
1053.320435	1.529367	0.07193
1056.697021	1.526858	0.07272
1060.074097	1.524341	0.07351
1063.451904	1.521813	0.07431
1066.830200	1.519275	0.07511
1070.209106	1.516728	0.07593
1073.588623	1.514171	0.07675
1076.968750	1.511604	0.07758
1080.349487	1.509027	0.07841
1083.730835	1.506440	0.07926
1087.112793	1.503842	0.08011
1090.495239	1.501235	0.08097
1093.878418	1.498618	0.08184
1097.262085	1.495990	0.08272
1100.646362	1.493352	0.08361
1104.031250	1.490704	0.08450
1107.416748	1.488045	0.08541
1110.802856	1.485376	0.08632
1114.189575	1.482696	0.08724
1117.576904	1.480006	0.08817
1120.964722	1.477305	0.08911
1124.353271	1.474594	0.09006
1127.742310	1.471872	0.09101
1131.131958	1.469139	0.09198
1134.522217	1.466396	0.09295
1137.913086	1.463642	0.09394
1141.304565	1.460877	0.09493
1144.696533	1.458101	0.09593
1148.089233	1.455314	0.09694
1151.482544	1.452516	0.09797
1154.876343	1.449707	0.09900
1158.270752	1.446887	0.10004
1161.665771	1.444056	0.10109
1165.061523	1.441214	0.10215
1168.457764	1.438360	0.10323
1171.854492	1.435496	0.10431
1175.251953	1.432620	0.10540
1178.650024	1.429732	0.10650
1182.048584	1.426834	0.10762
1185.447876	1.423923	0.10874
1188.847656	1.421002	0.10988
1192.248047	1.418068	0.11102
1195.649048	1.415124	0.11218
1199.050537	1.412167	0.11335
1202.452881	1.409199	0.11453
1205.855591	1.406219	0.11572
1209.259033	1.403228	0.11692
1212.662964	1.400225	0.11814
1216.067627	1.397210	0.11936
1219.472778	1.394183	0.12060
1222.878540	1.391144	0.12185
1226.284912	1.388093	0.12311
1229.691772	1.385030	0.12439
1233.099365	1.381956	0.12568
1236.507568	1.378869	0.12698
1239.916260	1.375769	0.12829
1243.325562	1.372658	0.12961
1246.735596	1.369535	0.13095
1250.146118	1.366400	0.13230
1253.557251	1.363252	0.13367
1256.968994	1.360092	0.13505
1260.381226	1.356920	0.13644
1263.794189	1.353735	0.13785
1267.207764	1.350538	0.13926
1270.621826	1.347328	0.14070
1274.036499	1.344106	0.14215
1277.451904	1.340872	0.14361
1280.867676	1.337625	0.14509
1284.284180	1.334365	0.14658
1287.701294	1.331093	0.14808
1291.119019	1.327809	0.14961
1294.537354	1.324512	0.15114
1297.956177	1.321202	0.15269
1301.375610	1.317879	0.15426
1304.795654	1.314544	0.15585
1308.216431	1.311196	0.15745
1311.637573	1.307835	0.15906
1315.059448	1.304462	0.16069
1318.481934	1.301076	0.16234
1321.905029	1.297677	0.16401
1325.328613	1.294265	0.16569
1328.752808	1.290840	0.16739
1332.177734	1.287403	0.16911
1335.603149	1.283953	0.17084
1339.029175	1.280490	0.17259
1342.455811	1.277014	0.17436
1345.883057	1.273525	0.17615
1349.310791	1.270024	0.17796
1352.739258	1.266510	0.17978
1356.168213	1.262983	0.18163
1359.597900	1.259443	0.18349
1363.028076	1.255890	0.18538
1366.458740	1.252324	0.18728
1369.890259	1.248746	0.18920
1373.322144	1.245155	0.19114
1376.754761	1.241551	0.19311
1380.187866	1.237935	0.19509
1383.621704	1.234306	0.19709
1387.056030	1.230664	0.19912
1390.490967	1.227009	0.20117
1393.926514	1.223342	0.20324
1397.362671	1.219663	0.20533
1400.799438	1.215971	0.20744
1404.236816	1.212266	0.20957
1407.674683	1.208549	0.21173
1411.113281	1.204820	0.21391
1414.552368	1.201079	0.21612
1417.992065	1.197325	0.21834
1421.432373	1.193559	0.22060
1424.873291	1.189781	0.22287
1428.314819	1.185991	0.22517
1431.756958	1.182190	0.22750
1435.199585	1.178376	0.22985
1438.642944	1.174551	0.23222
1442.086792	1.170714	0.23463
1445.531372	1.166866	0.23705
1448.976318	1.163006	0.23951
1452.422119	1.159135	0.24199
1455.868408	1.155253	0.24450
1459.315186	1.151360	0.24703
1462.762695	1.147457	0.24960
1466.210693	1.143542	0.25219
1469.659424	1.139617	0.25481
1473.108643	1.135682	0.25746
1476.558350	1.131737	0.26014
1480.008911	1.127781	0.26284
1483.459839	1.123816	0.26558
1486.911499	1.119841	0.26835
1490.363770	1.115857	0.27115
1493.816650	1.111863	0.27398
1497.270020	1.107861	0.27684
1500.723999	1.103850	0.27973
1504.178589	1.099831	0.28265
1507.633789	1.095804	0.28561
1511.089600	1.091768	0.28860
1514.546021	1.087725	0.29162
1518.002930	1.083675	0.29468
1521.460571	1.079618	0.29777
1524.918701	1.075554	0.30089
1528.377441	1.071484	0.30405
1531.836792	1.067408	0.30725
1535.296753	1.063326	0.31048
1538.757324	1.059239	0.31374
1542.218506	1.055147	0.31705
1545.680176	1.051050	0.32038
1549.142456	1.046950	0.32376
1552.605469	1.042846	0.32717
1556.068970	1.038738	0.33062
1559.533081	1.034628	0.33411
1562.997803	1.030516	0.33764
1566.463135	1.026402	0.34120
1569.928955	1.022287	0.34481
1573.395508	1.018171	0.34845
1576.862549	1.014054	0.35214
1580.330322	1.009938	0.35586
1583.798584	1.005823	0.35963
1587.267456	1.001710	0.36343
1590.736938	0.997598	0.36728
1594.207031	0.993489	0.37116
1597.677612	0.989384	0.37509
1601.148926	0.985282	0.37906
1604.620850	0.981185	0.38307
1608.093140	0.977094	0.38713
1611.566162	0.973008	0.39123
1615.039795	0.968929	0.39537
1618.514038	0.964857	0.39955
1621.989014	0.960793	0.40377
1625.464355	0.956738	0.40804
1628.940308	0.952693	0.41235
1632.416992	0.948658	0.41671
1635.894165	0.944634	0.42111
1639.371826	0.940623	0.42555
1642.850342	0.936623	0.43003
1646.329346	0.932638	0.43456
1649.808960	0.928666	0.43914
1653.289063	0.924710	0.44375
1656.769897	0.920770	0.44841
1660.251221	0.916847	0.45312
1663.733154	0.912942	0.45786
1667.215820	0.909055	0.46265
1670.698853	0.905187	0.46749
1674.182617	0.901340	0.47236
1677.666992	0.897514	0.47728
1681.151978	0.893709	0.48224
1684.637451	0.889928	0.48725